! POLY_PARM.TBL
!
! This table specifies the parameters that are used for warning polygons
! generation.
!
! The parameter names and values are defined below:
!
! WSCA: Minimum small craft advisory threshold.  Currently not used.
! WGALE: Minumum gale warning threshold.
! WSTORM: Mininum storm warning threshold.
! WHURR: Minimum hurricane force wind warning threshold.
!
! MAP_ON: Flag (T or F) for forecast zone plotting (green color).
! RAW_ON: Flag (T or F) for original/raw polygons (dashed lines).
!
! DISTNM: Minimum distance (nm) between polygons before point reductions.
! REDPCT: Area percentage increase (0. to 1.) after a point reduction.
! REDIST: Maximum distance (nm) allowed from the polygons.
! MAXCLP: Maximum vertices for final polygons.
! SKIPCT: Maximum ratio (0. to 1.) allowed for two connecting points to cut 
!	  across the x or y dimension, see 0608/12, 0623/00.
!
!!
! Log:
! T. Lee/SAIC		07/08
!---------------------------------------------------------------------------
!
! Warning categories.
!
!WSCA		22.5
WGALE		32.5
WSTORM		47.5
WHURR		62.5
!
! Map and raw polygon plotting flags.
!
MAP_ON		T
RAW_ON		F
!
! Minimum distance (nm) among polygons.
!
DISTNM		200.
!
! Point reduction parameters
!
MAXCLP		 8
REDPCT		10.
REDIST		60.
SKIPCT		50.
!
! OPC Pacific zone.
!
OPC_PAC    17 
   48.537 -131.413   48.510 -125.850   45.283 -125.285   42.909 -125.733
   41.377 -125.377   40.225 -125.619   33.704 -121.131   33.120 -118.449
   28.982 -116.316   28.998 -120.582   30.508 -121.561   31.228 -123.999
   37.716 -129.098   39.717 -129.876   42.687 -130.407   45.276 -130.054
   48.537 -131.413
!
! OPC Atlantic zone.
!
OPC_ATL    68
   44.201  -67.162   43.927  -67.223   43.900  -67.341   43.867  -67.383
   42.790  -67.770   42.294  -67.188   39.735  -65.015   37.769  -67.026
   37.096  -68.730   36.934  -70.000   36.491  -70.212   34.736  -70.281
   32.888  -71.340   32.006  -72.388   31.000  -73.760   31.000  -80.391
   31.574  -79.909   31.880  -80.568   32.240  -80.110   32.365  -79.784
   32.663  -79.396   32.788  -79.126   33.038  -78.918   33.426  -78.779
   33.627  -78.245   33.537  -77.975   33.648  -77.746   34.091  -77.510
   34.404  -76.889   34.270  -76.590   34.300  -76.426   34.793  -75.858
   34.957  -75.366   35.240  -75.201   35.836  -75.210   36.889  -75.659
   37.373  -75.327   37.547  -75.309   37.744  -75.029   38.227  -74.778
   38.642  -74.744   38.983  -74.395   39.238  -74.056   39.842  -73.716
   40.144  -73.708   40.256  -73.621   40.299  -73.172   40.484  -72.473
   40.766  -71.734   40.912  -71.242   40.942  -70.342   40.883  -70.051
   40.951  -69.788   41.053  -69.586   41.243  -69.498   41.486  -69.518
   41.780  -69.484   42.051  -69.538   42.272  -69.749   42.665  -70.033
   42.790  -70.058   42.892  -70.150   43.126  -70.024   43.272  -69.858
   43.773  -68.496   44.011  -67.747   44.148  -67.426   44.206  -67.260
!
! TPC zone.
!
TPC        191
   31.000  -80.391   31.001  -73.760   31.000  -64.956   22.055  -65.043
   21.999  -54.869    6.961  -55.036    7.023  -58.403    7.402  -58.428
    8.098  -59.124    8.578  -59.984    8.692  -60.464    9.590  -60.982
    9.969  -61.716   10.070  -60.932   10.904  -60.869   10.803  -61.918
   11.031  -62.019   11.044  -63.587   11.259  -63.600   11.170  -64.674
   10.373  -64.585   10.399  -65.395   10.841  -65.926   10.715  -68.012
   11.183  -68.063   11.726  -68.531   11.891  -69.580   12.440  -69.850
   12.440  -70.297   11.537  -70.655   11.853  -70.920   12.272  -70.800
   12.775  -71.415   12.586  -72.020   12.118  -72.463   11.600  -73.563
   11.600  -74.043   11.296  -74.650   11.296  -74.827   10.702  -75.611
    9.653  -75.864    8.679  -77.103    9.387  -77.925    9.830  -79.581
    9.324  -80.340    8.932  -81.326    9.842  -82.730   11.208  -83.665
   13.471  -83.362   15.064  -83.058   15.532  -83.691   16.013  -84.146
   16.164  -86.030   15.975  -86.346   15.962  -88.192   16.139  -88.432
   17.125  -88.053   17.125  -87.787   17.505  -87.585   17.757  -87.838
   19.578  -87.244   20.033  -87.319   20.236  -87.168   20.084  -87.016
   20.514  -86.510   20.830  -86.826   21.146  -86.687   21.677  -86.991
   21.563  -87.509   21.639  -88.053   21.171  -90.329   20.691  -90.556
   20.033  -90.531   19.199  -90.910   18.782  -91.719   18.162  -94.476
   18.541  -94.804   18.819  -95.816   20.539  -97.106   22.613  -97.890
   22.865  -97.738   23.346  -97.839   25.179  -97.498   25.976  -97.118
   25.976  -96.157   27.051  -96.372   27.303  -96.246   28.631  -93.957
   28.808  -93.426   28.403  -91.770   28.062  -91.062   28.125  -89.924
   27.961  -89.684   28.024  -88.811   28.492  -88.268   29.200  -88.027
   29.453  -86.409   28.819  -85.838   28.595  -84.943   28.897  -84.171
   28.479  -83.804   27.455  -83.792   24.888  -82.249   24.939  -83.058
   24.724  -83.299   23.852  -83.273   23.624  -83.084   23.561  -82.603
   23.599  -81.554   23.725  -80.896   23.270  -81.040   23.331  -81.372
   23.182  -83.337   22.575  -84.449   22.170  -84.652   21.942  -85.208
   21.702  -85.094   21.664  -84.702   21.563  -84.474   21.765  -84.095
   21.715  -83.969   21.993  -83.766   21.968  -83.387   22.157  -83.096
   21.639  -83.412   21.298  -83.198   21.310  -82.553   21.588  -82.350
   22.157  -82.818   22.322  -82.325   22.018  -81.604   21.879  -80.580
   21.348  -79.253   21.411  -78.785   20.918  -78.671   20.501  -78.001
   20.476  -77.293   19.856  -77.988   19.654  -77.811   19.831  -76.269
   19.692  -74.954   19.882  -74.625   19.844  -74.233   19.945  -74.145
   19.856  -73.841   19.151  -73.414   18.875  -73.777   18.860  -74.431
   18.410  -74.737   17.884  -74.006   17.901  -72.033   17.334  -71.525
   17.467  -71.110   17.960  -70.668   18.061  -69.141   17.843  -68.749
   17.872  -68.037   16.898  -67.993   16.913  -63.996   19.543  -63.996
   19.529  -67.993   18.511  -68.008   19.500  -69.301   19.514  -69.621
   19.979  -70.638   20.066  -71.743   19.863  -71.946   19.965  -72.426
   20.212  -72.557   20.241  -72.876   19.804  -73.662   20.003  -74.032
   20.241  -73.894   20.953  -75.405   21.267  -75.922   21.553  -76.764
   22.123  -77.443   22.747  -78.434   22.544  -79.031   22.815  -79.208
   23.046  -79.574   22.992  -79.764   23.127  -79.954   23.155  -80.416
   23.270  -81.040   23.730  -80.890   24.241  -79.859   25.055  -79.235
   27.035  -79.062   30.652  -80.475   30.999  -80.303
